"Wavelength, nm",E-490 W/m2/nm
199.5,6.19e-05
200.5,0.000561
201.5,0.0049
202.5,0.00118
203.5,4.77e-05
204.5,3.43e-05
205.5,2.88e-05
206.5,3.52e-05
207.5,2.13e-05
208.5,1.73e-05
209.5,3.99e-05
210.5,0.000121
211.5,3.98e-05
212.5,4.13e-05
213.5,0.000168
214.5,4.57e-05
215.5,3.8e-05
216.5,3.09e-05
217.5,2.92e-05
218.5,3.97e-05
219.5,7.56e-05
220.5,6.08e-05
221.5,4.21e-05
222.5,4.68e-05
223.5,5.11e-05
224.5,5.09e-05
225.5,5.54e-05
226.5,7.09e-05
227.5,8.49e-05
228.5,8.2e-05
229.5,7.96e-05
230.5,8.7e-05
231.5,9.27e-05
232.5,0.000116
233.5,0.00013
234.5,0.000206
235.5,0.000214
236.5,0.000185
237.5,0.000172
238.5,0.000168
239.5,0.000175
240.5,0.000193
241.5,0.000223
242.5,0.000252
243.5,0.000284
244.5,0.000297
245.5,0.00043
246.5,0.000399
247.5,0.000388
248.5,0.000456
249.5,0.000588
250.5,0.000662
251.5,0.000688
252.5,0.000725
253.5,0.000765
254.5,0.000907
255.5,0.00108
256.5,0.00122
257.5,0.0014
258.5,0.00154
259.5,0.00158
260.5,0.00183
261.5,0.00223
262.5,0.00224
263.5,0.00224
264.5,0.00207
265.5,0.00231
266.5,0.0027
267.5,0.00301
268.5,0.00329
269.5,0.00357
270.5,0.00376
271.5,0.00417
272.5,0.00411
273.5,0.00381
274.5,0.00521
275.5,0.00543
276.5,0.00601
277.5,0.00619
278.5,0.00619
279.5,0.00666
280.5,0.00733
281.5,0.00802
282.5,0.00826
283.5,0.00922
284.5,0.0103
285.5,0.0105
286.5,0.0111
287.5,0.0127
288.5,0.0151
289.5,0.0214
290.5,0.0279
291.5,0.0335
292.5,0.0313
293.5,0.0332
294.5,0.04
295.5,0.0362
296.5,0.0323
297.5,0.0353
298.5,0.0444
299.5,0.0469
300.5,0.0473
301.5,0.0396
302.5,0.0497
303.5,0.063
304.5,0.059
305.5,0.0523
306.5,0.0394
307.5,0.0399
308.5,0.052
309.5,0.0477
310.0,0.0521
310.4,0.051
310.8,0.0533
311.2,0.0447
311.6,0.039
312.0,0.0514
312.4,0.0486
312.8,0.0484
313.2,0.042
313.6,0.0441
314.0,0.0396
314.4,0.0515
314.8,0.0706
315.2,0.0665
315.6,0.061
316.0,0.0494
316.4,0.0504
316.8,0.0555
317.2,0.0457
317.6,0.0564
318.0,0.0601
318.4,0.046
318.8,0.0416
319.2,0.0516
319.6,0.0596
320.0,0.0793
320.4,0.102
320.8,0.125
321.2,0.125
321.6,0.104
322.0,0.0855
322.4,0.0898
322.8,0.104
323.2,0.166
323.6,0.25
324.0,0.253
324.4,0.249
324.8,0.251
325.2,0.244
325.6,0.239
326.0,0.267
326.4,0.224
326.8,0.197
327.2,0.197
327.6,0.133
328.0,0.175
328.4,0.243
328.8,0.234
329.2,0.159
329.6,0.0856
330.0,0.0946
330.4,0.208
330.5,0.294
331.5,0.314
332.5,0.235
333.5,0.163
334.5,0.323
335.5,0.336
336.5,0.322
337.5,0.473
338.5,0.601
339.5,0.581
340.5,0.522
341.5,0.536
342.5,0.509
343.5,0.553
344.5,0.51
345.5,0.507
346.5,0.466
347.5,0.484
348.5,0.42
349.5,0.456
350.5,0.489
351.5,0.621
352.5,0.603
353.5,0.595
354.5,0.556
355.5,0.615
356.5,0.611
357.5,0.497
358.5,0.622
359.5,0.729
360.5,0.656
361.5,0.7
362.5,0.663
363.5,0.633
364.5,0.633
365.5,0.774
366.5,0.665
367.5,0.711
368.5,0.805
369.5,0.7
370.5,0.689
371.5,0.661
372.5,0.761
373.5,0.876
374.5,0.98
375.5,0.953
376.5,0.918
377.5,1.06
378.5,1.02
379.5,0.966
380.5,0.955
381.5,0.922
382.5,0.959
383.5,0.943
384.5,0.81
385.5,0.842
386.5,0.922
387.5,0.958
388.5,1.01
389.5,0.924
390.5,0.993
391.5,0.951
392.5,0.796
393.5,0.939
394.5,0.926
395.5,0.902
396.5,0.897
397.5,0.89
398.5,1.05
399.5,0.98
400.5,0.908
401.5,1.03
402.5,1.11
403.5,1.05
404.5,0.912
405.5,0.796
406.5,0.694
407.5,0.991
408.5,0.971
409.5,0.878
410.5,0.998
411.5,0.997
412.5,1.01
413.5,1.15
414.5,1.23
415.5,1.18
416.5,1.1
417.5,1.23
418.5,1.14
419.5,1.18
420.5,1.05
421.5,0.92
422.5,0.9
423.5,1.06
424.5,1.09
425.5,1.28
426.5,1.33
427.5,1.07
428.5,1.2
429.5,1.08
430.5,0.791
431.5,0.684
432.5,0.96
433.5,1.01
434.5,1.01
435.5,1.0
436.5,0.984
437.5,1.17
438.5,1.25
439.5,1.34
440.5,1.02
441.5,0.582
442.5,1.03
443.5,1.31
444.5,0.855
445.5,0.929
446.5,1.52
447.5,1.66
448.5,1.68
449.5,1.75
450.5,1.76
451.5,1.68
452.5,1.67
453.5,1.67
454.5,1.59
455.5,1.63
456.5,1.74
457.5,1.72
458.5,1.53
459.5,1.82
460.5,1.79
461.5,1.76
462.5,1.74
463.5,1.73
464.5,1.84
465.5,1.67
466.5,1.68
467.5,1.7
468.5,1.76
469.5,1.8
470.5,1.58
471.5,1.71
472.5,1.77
473.5,1.7
474.5,1.7
475.5,1.57
476.5,1.59
477.5,1.48
478.5,1.14
479.5,1.69
480.5,1.65
481.5,1.73
482.5,1.67
483.5,1.72
484.5,1.93
485.5,1.81
486.5,1.57
487.5,1.83
488.5,1.71
489.5,1.93
490.5,1.98
491.5,1.91
492.5,1.97
493.5,1.82
494.5,1.89
495.5,2.08
496.5,1.97
497.5,2.03
498.5,2.14
499.5,2.11
500.5,1.94
501.5,1.97
502.5,1.98
503.5,2.03
504.5,2.08
505.5,2.1
506.5,1.97
507.5,2.01
508.5,2.04
509.5,2.06
510.5,2.1
511.5,2.04
512.5,1.98
513.5,2.04
514.5,1.92
515.5,2.02
516.5,1.99
517.5,1.99
518.5,1.88
519.5,2.02
520.5,2.04
521.5,1.99
522.5,2.05
523.5,2.02
524.5,1.96
525.5,2.08
526.5,2.01
527.5,2.08
528.5,2.04
529.5,2.09
530.5,2.02
531.5,2.02
532.5,1.97
533.5,1.83
534.5,1.63
535.5,1.83
536.5,1.91
537.5,1.96
538.5,2.01
539.5,1.9
540.5,1.9
541.5,1.89
542.5,2.06
543.5,1.93
544.5,2.02
545.5,2.02
546.5,1.87
547.5,1.97
548.5,1.86
549.5,1.81
550.5,1.89
551.5,1.93
552.5,1.87
553.5,1.99
554.5,1.96
555.5,1.91
556.5,1.92
557.5,1.92
558.5,1.95
559.5,2.0
560.5,1.87
561.5,1.86
562.5,1.87
563.5,1.9
564.5,1.67
565.5,1.73
566.5,1.65
567.5,1.83
568.5,1.83
569.5,1.91
570.5,1.82
571.5,1.89
572.5,1.96
573.5,1.93
574.5,1.67
575.5,1.83
576.5,1.9
577.5,1.92
578.5,1.95
579.5,1.96
580.5,1.77
581.5,1.92
582.5,1.86
583.5,1.99
584.5,1.87
585.5,1.88
586.5,1.9
587.5,1.83
588.5,1.77
589.5,1.88
590.5,1.83
591.5,1.88
592.5,1.88
593.5,1.9
594.5,1.88
595.5,1.83
596.5,1.86
597.5,1.9
598.5,1.86
599.5,1.87
600.5,1.85
601.5,1.88
602.5,1.9
603.5,1.9
604.5,1.82
605.5,1.85
606.5,1.79
607.5,1.81
608.5,1.84
609.5,1.82
610.5,1.85
611.5,1.86
612.5,1.85
613.5,1.8
614.5,1.83
615.5,1.89
616.5,1.81
617.5,1.86
618.5,1.77
619.5,1.82
620.5,1.89
621.5,1.88
622.5,1.87
623.5,1.83
624.5,1.85
625.5,1.86
626.5,1.78
627.5,1.83
628.5,1.84
629.5,1.85
631.0,1.87
633.0,1.86
635.0,1.86
637.0,1.78
639.0,1.83
641.0,1.85
643.0,1.75
645.0,1.61
647.0,1.81
649.0,1.79
651.0,1.81
653.0,1.8
655.0,1.77
657.0,1.78
659.0,1.81
661.0,1.78
663.0,1.76
665.0,1.77
667.0,1.75
669.0,1.75
671.0,1.72
673.0,1.79
675.0,1.78
677.0,1.76
679.0,1.76
681.0,1.76
683.0,1.74
685.0,1.74
687.0,1.7
689.0,1.75
691.0,1.71
693.0,1.68
695.0,1.71
697.0,1.71
699.0,1.61
701.0,1.71
703.0,1.72
705.0,1.71
707.0,1.73
709.0,1.69
711.0,1.71
713.0,1.67
715.0,1.66
717.0,1.63
719.0,1.7
721.0,1.7
723.0,1.7
725.0,1.68
727.0,1.64
729.0,1.65
731.0,1.66
733.0,1.65
735.0,1.65
737.0,1.61
739.0,1.62
741.0,1.63
743.0,1.6
745.0,1.56
747.0,1.61
749.0,1.6
751.0,1.53
753.0,1.38
755.0,1.55
757.0,1.57
759.0,1.56
761.0,1.56
763.0,1.54
765.0,1.55
767.0,1.52
769.0,1.52
771.0,1.51
773.0,1.51
775.0,1.5
777.0,1.49
779.0,1.48
781.0,1.46
783.0,1.47
785.0,1.46
787.0,1.45
789.0,1.45
791.0,1.44
793.0,1.42
795.0,1.43
797.0,1.39
799.0,1.39
801.0,1.42
803.0,1.4
805.0,1.38
807.0,1.39
809.0,1.37
811.0,1.37
813.0,1.35
815.0,1.33
817.0,1.33
819.0,1.35
821.0,1.35
823.0,1.35
825.0,1.32
827.0,1.33
829.0,1.32
831.0,1.31
833.0,1.31
835.0,1.28
837.0,1.26
839.0,1.29
841.0,1.28
843.0,1.28
845.0,1.27
847.0,1.26
849.0,1.26
851.0,1.26
853.0,1.25
855.0,1.24
857.0,1.24
859.0,1.24
861.0,1.22
863.0,1.19
865.0,1.2
867.0,1.2
869.0,1.21
871.0,1.19
873.0,1.2
875.0,1.19
877.0,1.19
879.0,1.18
881.0,1.18
883.0,1.18
885.0,1.17
887.0,1.16
889.0,1.14
891.0,1.13
893.0,1.15
895.0,1.14
897.0,1.14
899.0,1.13
901.0,1.12
903.0,1.12
905.0,1.1
907.0,1.11
909.0,1.12
911.0,1.11
913.0,1.1
915.0,1.06
917.0,1.08
919.0,1.07
921.0,1.08
923.0,1.08
925.0,1.08
927.0,1.06
929.0,1.05
931.0,1.04
933.0,1.05
935.0,1.04
937.0,1.04
939.0,1.04
941.0,1.02
943.0,1.03
945.0,1.02
947.0,0.966
949.0,0.996
951.0,0.878
953.0,0.976
955.0,1.01
957.0,0.997
959.0,0.995
961.0,0.999
963.0,0.886
965.0,0.94
967.0,0.975
969.0,0.983
971.0,0.971
973.0,0.964
975.0,0.975
977.0,0.955
979.0,0.951
981.0,0.958
983.0,0.938
985.0,0.944
987.0,0.953
989.0,0.939
991.0,0.933
993.0,0.939
995.0,0.934
997.0,0.916
999.0,0.892
1002.5,0.929
1007.5,0.918
1012.5,0.903
1017.5,0.892
1022.5,0.897
1027.5,0.907
1032.5,0.9
1037.5,0.895
1042.5,0.891
1047.5,0.863
1052.5,0.859
1057.5,0.861
1062.5,0.877
1067.5,0.868
1072.5,0.865
1077.5,0.864
1082.5,0.855
1087.5,0.858
1092.5,0.844
1097.5,0.825
1102.5,0.832
1107.5,0.838
1112.5,0.841
1117.5,0.837
1122.5,0.832
1127.5,0.808
1132.5,0.808
1137.5,0.819
1142.5,0.815
1147.5,0.809
1152.5,0.801
1157.5,0.795
1162.5,0.797
1167.5,0.796
1172.5,0.794
1177.5,0.782
1182.5,0.783
1187.5,0.778
1192.5,0.775
1197.5,0.776
1202.5,0.77
1207.5,0.766
1212.5,0.762
1217.5,0.754
1222.5,0.757
1227.5,0.756
1232.5,0.753
1237.5,0.751
1242.5,0.748
1247.5,0.747
1252.5,0.726
1257.5,0.714
1262.5,0.734
1267.5,0.731
1272.5,0.726
1277.5,0.721
1282.5,0.714
1287.5,0.711
1292.5,0.704
1297.5,0.702
1302.5,0.705
1307.5,0.703
1312.5,0.699
1317.5,0.694
1322.5,0.691
1327.5,0.682
1332.5,0.684
1337.5,0.677
1342.5,0.676
1347.5,0.675
1352.5,0.671
1357.5,0.66
1362.5,0.664
1367.5,0.662
1372.5,0.659
1377.5,0.655
1382.5,0.656
1387.5,0.645
1392.5,0.642
1397.5,0.644
1402.5,0.646
1407.5,0.64
1412.5,0.632
1417.5,0.624
1422.5,0.633
1427.5,0.628
1432.5,0.628
1437.5,0.627
1442.5,0.625
1447.5,0.61
1452.5,0.618
1457.5,0.621
1462.5,0.61
1467.5,0.62
1472.5,0.616
1477.5,0.585
1482.5,0.598
1487.5,0.596
1492.5,0.604
1497.5,0.593
1502.5,0.597
1507.5,0.595
1512.5,0.592
1517.5,0.591
1522.5,0.584
1527.5,0.584
1532.5,0.583
1537.5,0.582
1542.5,0.574
1547.5,0.58
1552.5,0.577
1557.5,0.566
1562.5,0.57
1567.5,0.565
1572.5,0.568
1577.5,0.564
1582.5,0.566
1587.5,0.557
1592.5,0.553
1597.5,0.553
1602.5,0.551
1607.5,0.555
1612.5,0.553
1617.5,0.549
1622.5,0.546
1627.5,0.548
1632.5,0.546
1637.5,0.544
1642.5,0.532
1647.5,0.533
1652.5,0.533
1657.5,0.53
1662.5,0.531
1667.5,0.528
1672.5,0.532
1677.5,0.527
1682.5,0.518
1687.5,0.519
1692.5,0.524
1697.5,0.516
1702.5,0.51
1707.5,0.519
1712.5,0.508
1717.5,0.509
1722.5,0.516
1727.5,0.515
1732.5,0.508
1737.5,0.494
1742.5,0.5
1747.5,0.507
1752.5,0.495
1757.5,0.504
1762.5,0.489
1767.5,0.488
1772.5,0.493
1777.5,0.494
1782.5,0.493
1787.5,0.49
1792.5,0.488
1797.5,0.485
1802.5,0.485
1807.5,0.482
1812.5,0.477
1817.5,0.479
1822.5,0.475
1827.5,0.473
1832.5,0.472
1837.5,0.47
1842.5,0.465
1847.5,0.464
1852.5,0.462
1857.5,0.464
1862.5,0.463
1867.5,0.462
1872.5,0.457
1877.5,0.457
1882.5,0.455
1887.5,0.453
1892.5,0.453
1897.5,0.45
1902.5,0.448
1907.5,0.447
1912.5,0.442
1917.5,0.445
1922.5,0.445
1927.5,0.443
1932.5,0.445
1937.5,0.444
1942.5,0.436
1947.5,0.401
1952.5,0.426
1957.5,0.433
1962.5,0.431
1967.5,0.426
1972.5,0.425
1977.5,0.422
1982.5,0.422
1987.5,0.418
1992.5,0.419
1997.5,0.414
2002.5,0.411
2012.5,0.414
2022.5,0.412
2032.5,0.411
2042.5,0.403
2052.5,0.402
2062.5,0.398
2077.5,0.402
2092.5,0.402
2107.5,0.399
2122.5,0.398
2137.5,0.395
2152.5,0.391
2167.5,0.388
2182.5,0.386
2197.5,0.389
2212.5,0.387
2227.5,0.383
2247.5,0.379
2262.5,0.381
2282.5,0.38
2302.5,0.377
2322.5,0.377
2342.5,0.372
2362.5,0.374
2382.5,0.372
2402.5,0.368
2422.5,0.369
2442.5,0.367
2467.5,0.368
2492.5,0.366
2517.5,0.366
2542.5,0.363
2567.5,0.36
2592.5,0.362
2617.5,0.361
2642.5,0.356
2672.5,0.358
2702.5,0.358
2732.5,0.355
2762.5,0.355
2797.5,0.353
2832.5,0.353
2867.5,0.351
2907.5,0.351
2947.5,0.349
2987.5,0.349
3025.0,0.349
3075.0,0.343
3125.0,0.344
3175.0,0.343
3235.0,0.343
3295.0,0.343
3355.0,0.342
3425.0,0.335
3495.0,0.338
3575.0,0.339
3665.0,0.339
3755.0,0.336
3855.0,0.332
3965.0,0.331
4085.0,0.328
4225.0,0.329
4385.0,0.326
4575.0,0.33
4805.0,0.328
5085.0,0.329
5445.0,0.328
5925.0,0.319
6615.0,0.319
7785.0,0.32
10075.0,0.322
